File: Energy-Available/battery_curve/charging_df_1.csv
Index,Status,Current(mA),Voltage(V),Capacity(mAh),Energy(Wh),RelaTime(h:min:s.ms),AbsoTime(h:min:s.ms)
48424,Charging,1454.6,12.3338,0.384028,0.00471572,0:00:01.000,2005-01-02 08:26:48
48644,Charging,1454.6,12.9141,89.2896,1.13184,0:03:41.000,2005-01-02 08:30:28
48864,Charging,1454.6,13.2242,178.19,2.29463,0:07:21.000,2005-01-02 08:34:08
49084,Charging,1454.6,13.4424,267.091,3.48031,0:11:01.000,2005-01-02 08:37:48
49304,Charging,1454.6,13.6036,355.991,4.68275,0:14:41.000,2005-01-02 08:41:28
49524,Charging,1454.6,13.7227,444.892,5.89767,0:18:21.000,2005-01-02 08:45:08
49744,Charging,1454.6,13.812,533.795,7.12165,0:22:01.000,2005-01-02 08:48:48
49964,Charging,1454.6,13.874,622.698,8.35224,0:25:41.000,2005-01-02 08:52:28
50184,Charging,1454.6,13.9211,711.613,9.58797,0:29:21.000,2005-01-02 08:56:08
50404,Charging,1454.6,13.9533,800.533,10.827,0:33:01.000,2005-01-02 08:59:48
50624,Charging,1454.6,13.9831,889.452,12.0687,0:36:41.000,2005-01-02 09:03:28
50844,Charging,1454.6,14.0178,978.372,13.3136,0:40:21.000,2005-01-02 09:07:08
51064,Charging,1454.6,14.05,1067.28,14.5613,0:44:01.000,2005-01-02 09:10:48
51284,Charging,1454.6,14.0798,1156.19,15.8116,0:47:41.000,2005-01-02 09:14:28
51504,Charging,1454.6,14.1145,1245.09,17.0654,0:51:21.000,2005-01-02 09:18:08
51724,Charging,1454.6,14.1493,1334,18.3216,0:55:01.000,2005-01-02 09:21:48
51944,Charging,1454.6,14.184,1422.895,19.5804,0:58:41.000,2005-01-02 09:25:28
52164,Charging,1454.6,14.2261,1511.794,20.8432,1:02:21.000,2005-01-02 09:29:08
52384,Charging,1454.6,14.2658,1600.69,22.1096,1:06:01.000,2005-01-02 09:32:48
52604,Charging,1454.6,14.308,1689.59,23.3795,1:09:41.000,2005-01-02 09:36:28
52824,Charging,1454.6,14.3452,1778.49,24.6532,1:13:21.000,2005-01-02 09:40:08
53044,Charging,1456.4,14.3874,1867.4,25.9306,1:17:01.000,2005-01-02 09:43:48
53264,Charging,1456.4,14.4246,1956.3,27.2111,1:20:41.000,2005-01-02 09:47:28
53484,Charging,1454.6,14.4593,2045.1,28.4952,1:24:21.000,2005-01-02 09:51:08
53704,Charging,1454.6,14.499,2133.8,29.7826,1:28:01.000,2005-01-02 09:54:48
53924,Charging,1454.6,14.5337,2222.5,31.0733,1:31:41.000,2005-01-02 09:58:28
54144,Charging,1454.6,14.5684,2311.19,32.366,1:35:21.000,2005-01-02 10:02:08
54364,Charging,1454.6,14.6031,2399.89,33.6631,1:39:01.000,2005-01-02 10:05:48
54584,Charging,1454.6,14.6304,2488.57,34.9638,1:42:41.000,2005-01-02 10:09:28
54804,Charging,1454.6,14.6552,2577.22,36.2646,1:46:21.000,2005-01-02 10:13:08
55024,Charging,1454.6,14.675,2665.87,37.5655,1:50:01.000,2005-01-02 10:16:48
55244,Charging,1454.6,14.6974,2754.53,38.8718,1:53:41.000,2005-01-02 10:20:28
55464,Charging,1454.6,14.7172,2843.182,40.1808,1:57:21.000,2005-01-02 10:24:08
55684,Charging,1454.6,14.7346,2931.84,41.49,2:01:01.000,2005-01-02 10:27:48
55904,Charging,1454.6,14.7544,3020.53,42.7992,2:04:41.000,2005-01-02 10:31:28
56124,Charging,1454.6,14.7743,3109.23,44.1092,2:08:21.000,2005-01-02 10:35:08
56344,Charging,1454.6,14.7966,3197.94,45.4264,2:12:01.000,2005-01-02 10:38:48
56564,Charging,1454.6,14.8189,3286.64,46.744,2:15:41.000,2005-01-02 10:42:28
56784,Charging,1454.6,14.8412,3375.33,48.0616,2:19:21.000,2005-01-02 10:46:08
57004,Charging,1454.6,14.8635,3464.03,49.3796,2:23:01.000,2005-01-02 10:49:48
57224,Charging,1454.6,14.8859,3552.72,50.7034,2:26:41.000,2005-01-02 10:53:28
57444,Charging,1454.6,14.9156,3641.4,52.0293,2:30:21.000,2005-01-02 10:57:08
57664,Charging,1454.6,14.9404,3730.05,53.3553,2:34:01.000,2005-01-02 11:00:48
57884,Charging,1454.6,14.9677,3818.7,54.6822,2:37:41.000,2005-01-02 11:04:28
58104,Charging,1456.4,14.9975,3907.35,56.0164,2:41:21.000,2005-01-02 11:08:08
58324,Charging,1454.6,15.0272,3996,57.3507,2:45:01.000,2005-01-02 11:11:48
58544,Charging,1454.6,15.0595,4085.15,58.6854,2:48:41.000,2005-01-02 11:15:28
58764,Charging,1454.6,15.0917,4174.31,60.0281,2:52:21.000,2005-01-02 11:19:08
58984,Charging,1454.6,15.1289,4263.48,61.3709,2:56:01.000,2005-01-02 11:22:48
59204,Charging,1454.6,15.1636,4352.65,62.7165,2:59:41.000,2005-01-02 11:26:28
59424,Charging,1454.6,15.2008,4441.82,64.0676,3:03:21.000,2005-01-02 11:30:08
59644,Charging,1454.6,15.2405,4530.99,65.4272,3:07:01.000,2005-01-02 11:33:48
59864,Charging,1454.6,15.2777,4620.16,66.7867,3:10:41.000,2005-01-02 11:37:28
60084,Charging,1454.6,15.3224,4709.32,68.1463,3:14:21.000,2005-01-02 11:41:08
60304,Charging,1454.6,15.3621,4798.49,69.5058,3:18:01.000,2005-01-02 11:44:48
60524,Charging,1454.6,15.4017,4887.66,70.8706,3:21:41.000,2005-01-02 11:48:28
60744,Charging,1454.6,15.4439,4976.83,72.2462,3:25:21.000,2005-01-02 11:52:08
60964,Charging,1454.6,15.4836,5066,73.6225,3:29:01.000,2005-01-02 11:55:48
61184,Charging,1454.6,15.5257,5155.17,74.9989,3:32:41.000,2005-01-02 11:59:28
61404,Charging,1454.6,15.5629,5244.34,76.3752,3:36:21.000,2005-01-02 12:03:08
61624,Charging,1454.6,15.5977,5333.51,77.7616,3:40:01.000,2005-01-02 12:06:48
61844,Charging,1454.6,15.6349,5422.67,79.1547,3:43:41.000,2005-01-02 12:10:28
62064,Charging,1454.6,15.6696,5511.84,80.5479,3:47:21.000,2005-01-02 12:14:08
62284,Charging,1454.6,15.7018,5601.01,81.941,3:51:01.000,2005-01-02 12:17:48
62504,Charging,1454.6,15.7366,5690.18,83.3341,3:54:41.000,2005-01-02 12:21:28
62724,Charging,1454.6,15.7688,5779.35,84.72864,3:58:21.000,2005-01-02 12:25:08
62944,Charging,1454.6,15.7986,5868.52,86.1385,4:02:01.000,2005-01-02 12:28:48
63164,Charging,1454.6,15.8333,5957.68,87.5484,4:05:41.000,2005-01-02 12:32:28
63384,Charging,1454.6,15.863,6046.85,88.9583,4:09:21.000,2005-01-02 12:36:08
63604,Charging,1454.6,15.8928,6136.02,90.3683,4:13:01.000,2005-01-02 12:39:48
63824,Charging,1454.6,15.925,6225.19,91.7782,4:16:41.000,2005-01-02 12:43:28
64044,Charging,1454.6,15.9573,6314.36,93.1889,4:20:21.000,2005-01-02 12:47:08
64264,Charging,1454.6,15.9895,6403.528,94.6149,4:24:01.000,2005-01-02 12:50:48
64484,Charging,1454.6,16.0218,6492.7,96.0414,4:27:41.000,2005-01-02 12:54:28
64704,Charging,1454.6,16.059,6581.86,97.4681,4:31:21.000,2005-01-02 12:58:08
64924,Charging,1454.6,16.0937,6671.03,98.8948,4:35:01.000,2005-01-02 13:01:48
65144,Charging,1454.6,16.1309,6760.2,100.322,4:38:41.000,2005-01-02 13:05:28
65364,Charging,1454.6,16.1731,6849.37,101.759,4:42:21.000,2005-01-02 13:09:08
65584,Charging,1454.6,16.2127,6938.54,103.203,4:46:01.000,2005-01-02 13:12:48
65804,Charging,1456.4,16.2549,7027.71,104.646,4:49:41.000,2005-01-02 13:16:28
66024,Charging,1454.6,16.2971,7116.876,106.09,4:53:21.000,2005-01-02 13:20:08
66244,Charging,1454.6,16.3392,7206.04,107.536,4:57:01.000,2005-01-02 13:23:48
66464,Charging,1454.6,16.3839,7295.21,108.995,5:00:41.000,2005-01-02 13:27:28
66684,Charging,1263.0,16.3938,7379.31,110.373,5:04:21.000,2005-01-02 13:31:08
66904,Charging,1086.3,16.3938,7450.84,111.546,5:08:01.000,2005-01-02 13:34:48
67124,Charging,946.8,16.3938,7512.864,112.564,5:11:41.000,2005-01-02 13:38:28
67344,Charging,840.7,16.3938,7567.184,113.454,5:15:21.000,2005-01-02 13:42:08
67564,Charging,745.9,16.3938,7615.5,114.247,5:19:01.000,2005-01-02 13:45:48
67784,Charging,665.9,16.3938,7658.52,114.953,5:22:41.000,2005-01-02 13:49:28
68004,Charging,598.9,16.3938,7697.2,115.587,5:26:21.000,2005-01-02 13:53:08
68224,Charging,543.1,16.3938,7732.15,116.161,5:30:01.000,2005-01-02 13:56:48
68444,Charging,496.6,16.3938,7763.94,116.682,5:33:41.000,2005-01-02 14:00:28
68664,Charging,457.5,16.3938,7793.07,117.159,5:37:21.000,2005-01-02 14:04:08
68884,Charging,416.6,16.3938,7819.352,117.593,5:41:01.000,2005-01-02 14:07:48
69104,Charging,385.0,16.3938,7843.88,117.996,5:44:41.000,2005-01-02 14:11:28
69324,Charging,362.7,16.3938,7866.63,118.371,5:48:21.000,2005-01-02 14:15:08
69544,Charging,342.2,16.3938,7888.0,118.723,5:52:01.000,2005-01-02 14:18:48
69764,Charging,319.9,16.3938,7908.22,119.054,5:55:41.000,2005-01-02 14:22:28
69984,Charging,303.1,16.3938,7927.21,119.366,5:59:21.000,2005-01-02 14:26:08
70204,Charging,293.8,16.3938,7945.3,119.664,6:03:01.000,2005-01-02 14:29:48
70424,Charging,279.0,16.3938,7962.95,119.951,6:06:41.000,2005-01-02 14:33:28
70644,Charging,267.8,16.3938,7979.74,120.224,6:10:21.000,2005-01-02 14:37:08
70864,Charging,254.8,16.3938,7995.56,120.485,6:14:01.000,2005-01-02 14:40:48
71084,Charging,243.6,16.3938,8010.54,120.737,6:17:41.000,2005-01-02 14:44:28
71304,Charging,234.3,16.3938,8025.23,120.973,6:21:21.000,2005-01-02 14:48:08
71524,Charging,225.0,16.3938,8039.91,121.204,6:25:01.000,2005-01-02 14:51:48
71744,Charging,212.0,16.3938,8052.75,121.422,6:28:41.000,2005-01-02 14:55:28
71964,Charging,202.7,16.3938,8065.33,121.624,6:32:21.000,2005-01-02 14:59:08
72184,Charging,195.3,16.3938,8077.92,121.826,6:36:01.000,2005-01-02 15:02:48
72404,Charging,186.0,16.3938,8090.16,122.02,6:39:41.000,2005-01-02 15:06:28
72624,Charging,180.4,16.3938,8100.65,122.205,6:43:21.000,2005-01-02 15:10:08
72844,Charging,176.7,16.3938,8111.14,122.388,6:47:01.000,2005-01-02 15:13:48
73064,Charging,176.7,16.3938,8121.63,122.561,6:50:41.000,2005-01-02 15:17:28
73284,Charging,169.2,16.3938,8132.12,122.731,6:54:21.000,2005-01-02 15:21:08
73504,Charging,163.6,16.3938,8142.61,122.899,6:58:01.000,2005-01-02 15:24:48
73724,Charging,158.1,16.3938,8153.104,123.066,7:01:41.000,2005-01-02 15:28:28
73944,Charging,152.5,16.3938,8162.29,123.218,7:05:21.000,2005-01-02 15:32:08
74164,Charging,146.9,16.3938,8170.68,123.369,7:09:01.000,2005-01-02 15:35:48
74384,Charging,143.2,16.3938,8179.07,123.52,7:12:41.000,2005-01-02 15:39:28
74604,Charging,132.0,16.3938,8187.47,123.655,7:16:21.000,2005-01-02 15:43:08
74824,Charging,126.4,16.3938,8195.86,123.79,7:20:01.000,2005-01-02 15:46:48
75044,Charging,124.6,16.3938,8204.25,123.916,7:23:41.000,2005-01-02 15:50:28
75264,Charging,120.9,16.3938,8212.56,124.033,7:27:21.000,2005-01-02 15:54:08
75484,Charging,113.4,16.3938,8219.04,124.151,7:31:01.000,2005-01-02 15:57:48
75704,Charging,111.6,16.3938,8225.34,124.268,7:34:41.000,2005-01-02 16:01:28
75924,Charging,113.4,16.3938,8231.63,124.381,7:38:21.000,2005-01-02 16:05:08
76144,Charging,113.4,16.3938,8237.93,124.498,7:42:01.000,2005-01-02 16:08:48
76364,Charging,107.8,16.3938,8244.224,124.612,7:45:41.000,2005-01-02 16:12:28
76584,Charging,106.0,16.3938,8250.52,124.713,7:49:21.000,2005-01-02 16:16:08
76770,Charging,100.4,16.3938,8255.84,124.798,7:52:27.000,2005-01-02 16:19:14