File: Energy-Available/battery_curve/discharging_df_2.csv
Index,Status,Current(mA),Voltage(V),Capacity(mAh),Energy(Wh),RelaTime(h:min:s.ms),AbsoTime(h:min:s.ms)
77375,Discharging,-965.4,16.2574,0.241111,0.0039325,0:00:01.000,2005-01-02 16:29:16
77630,Discharging,-965.4,16.2078,68.6089,1.11301,0:04:16.000,2005-01-02 16:33:31
77885,Discharging,-965.4,16.1879,136.975,2.22035,0:08:31.000,2005-01-02 16:37:46
78140,Discharging,-965.4,16.1731,205.356,3.32668,0:12:46.000,2005-01-02 16:42:01
78395,Discharging,-965.4,16.1557,273.738,4.43207,0:17:01.000,2005-01-02 16:46:16
78650,Discharging,-965.4,16.1383,342.12,5.53618,0:21:16.000,2005-01-02 16:50:31
78905,Discharging,-967.2,16.1185,410.564,6.6404,0:25:31.000,2005-01-02 16:54:46
79160,Discharging,-965.4,16.0962,479.019,7.7434,0:29:46.000,2005-01-02 16:59:01
79415,Discharging,-967.2,16.0714,547.512,8.84473,0:34:01.000,2005-01-02 17:03:16
79670,Discharging,-967.2,16.0441,616.019,9.94431,0:38:16.000,2005-01-02 17:07:31
79925,Discharging,-967.2,16.0143,684.532,11.0421,0:42:31.000,2005-01-02 17:11:46
80180,Discharging,-965.4,15.9871,753.034,12.1381,0:46:46.000,2005-01-02 17:16:01
80435,Discharging,-965.4,15.9573,821.414,13.2299,0:51:01.000,2005-01-02 17:20:16
80690,Discharging,-965.4,15.9226,889.799,14.3198,0:55:16.000,2005-01-02 17:24:31
80945,Discharging,-965.4,15.8903,958.19,15.4075,0:59:31.000,2005-01-02 17:28:46
81200,Discharging,-965.4,15.8581,1026.58,16.493,1:03:46.000,2005-01-02 17:33:01
81455,Discharging,-965.4,15.8234,1094.98,17.5769,1:08:01.000,2005-01-02 17:37:16
81710,Discharging,-965.4,15.7886,1163.37,18.6582,1:12:16.000,2005-01-02 17:41:31
81965,Discharging,-967.2,15.7564,1231.772,19.738,1:16:31.000,2005-01-02 17:45:46
82220,Discharging,-967.2,15.7217,1300.17,20.8161,1:20:46.000,2005-01-02 17:50:01
82475,Discharging,-965.4,15.6894,1368.57,21.891,1:25:01.000,2005-01-02 17:54:16
82730,Discharging,-965.4,15.6597,1436.97,22.9652,1:29:16.000,2005-01-02 17:58:31
82985,Discharging,-967.2,15.6274,1505.36,24.036,1:33:31.000,2005-01-02 18:02:46
83240,Discharging,-967.2,15.6001,1573.76,25.1042,1:37:46.000,2005-01-02 18:07:01
83495,Discharging,-967.2,15.5753,1642.16,26.1697,1:42:01.000,2005-01-02 18:11:16
83750,Discharging,-965.4,15.5481,1710.55,27.2341,1:46:16.000,2005-01-02 18:15:31
84005,Discharging,-965.4,15.5183,1778.95,28.2959,1:50:31.000,2005-01-02 18:19:46
84260,Discharging,-963.5,15.491,1847.35,29.3561,1:54:46.000,2005-01-02 18:24:01
84515,Discharging,-965.4,15.4637,1915.74,30.4158,1:59:01.000,2005-01-02 18:28:16
84770,Discharging,-967.2,15.434,1984.14,31.4743,2:03:16.000,2005-01-02 18:32:31
85025,Discharging,-967.2,15.4017,2052.69,32.5307,2:07:31.000,2005-01-02 18:36:46
85280,Discharging,-967.2,15.3745,2121.292,33.5813,2:11:46.000,2005-01-02 18:41:01
85535,Discharging,-967.2,15.3447,2189.9,34.6319,2:16:01.000,2005-01-02 18:45:16
85790,Discharging,-967.2,15.31,2258.522,35.6825,2:20:16.000,2005-01-02 18:49:31
86045,Discharging,-965.4,15.2802,2326.91,36.7303,2:24:31.000,2005-01-02 18:53:46
86300,Discharging,-967.2,15.2504,2395.11,37.7722,2:28:46.000,2005-01-02 18:58:01
86555,Discharging,-963.5,15.2207,2463.32,38.813,2:33:01.000,2005-01-02 19:02:16
86810,Discharging,-965.4,15.1884,2531.53,39.8538,2:37:16.000,2005-01-02 19:06:31
87065,Discharging,-965.4,15.1587,2599.76,40.8942,2:41:31.000,2005-01-02 19:10:46
87320,Discharging,-965.4,15.1339,2668.02,41.9302,2:45:46.000,2005-01-02 19:15:01
87575,Discharging,-967.2,15.0992,2736.66,42.9633,2:50:01.000,2005-01-02 19:19:16
87830,Discharging,-967.2,15.0694,2805.31,43.9946,2:54:16.000,2005-01-02 19:23:31
88085,Discharging,-967.2,15.0421,2873.97,45.0258,2:58:31.000,2005-01-02 19:27:46
88340,Discharging,-965.4,15.0124,2942.63,46.0569,3:02:46.000,2005-01-02 19:32:01
88595,Discharging,-967.2,14.9801,3011.29,47.0875,3:07:01.000,2005-01-02 19:36:16
88850,Discharging,-965.4,14.9553,3079.86,48.11,3:11:16.000,2005-01-02 19:40:31
89105,Discharging,-965.4,14.928,3148.096,49.1313,3:15:31.000,2005-01-02 19:44:46
89360,Discharging,-965.4,14.8983,3216.34,50.1527,3:19:46.000,2005-01-02 19:49:01
89615,Discharging,-967.2,14.8685,3284.596,51.1737,3:24:01.000,2005-01-02 19:53:16
89870,Discharging,-967.2,14.8387,3352.87,52.1889,3:28:16.000,2005-01-02 19:57:31
90125,Discharging,-965.4,14.809,3421.15,53.2007,3:32:31.000,2005-01-02 20:01:46
90380,Discharging,-967.2,14.7767,3489.7,54.2126,3:36:46.000,2005-01-02 20:06:01
90635,Discharging,-967.2,14.7495,3558.37,55.2243,3:41:01.000,2005-01-02 20:10:16
90890,Discharging,-967.2,14.7197,3627.05,56.2359,3:45:16.000,2005-01-02 20:14:31
91145,Discharging,-967.2,14.6924,3695.72,57.2456,3:49:31.000,2005-01-02 20:18:46
91400,Discharging,-967.2,14.6602,3764.4,58.2481,3:53:46.000,2005-01-02 20:23:01
91655,Discharging,-965.4,14.6378,3833.07,59.2505,3:58:01.000,2005-01-02 20:27:16
91910,Discharging,-965.4,14.6106,3901.41,60.2524,4:02:16.000,2005-01-02 20:31:31
92165,Discharging,-965.4,14.5858,3969.688,61.254,4:06:31.000,2005-01-02 20:35:46
92420,Discharging,-965.4,14.561,4037.87,62.2515,4:10:46.000,2005-01-02 20:40:01
92675,Discharging,-967.2,14.5362,4105.97,63.2445,4:15:01.000,2005-01-02 20:44:16
92930,Discharging,-967.2,14.5138,4174.07,64.2368,4:19:16.000,2005-01-02 20:48:31
93185,Discharging,-967.2,14.489,4242.2,65.229,4:23:31.000,2005-01-02 20:52:46
93440,Discharging,-967.2,14.4667,4310.4,66.2212,4:27:46.000,2005-01-02 20:57:01
93695,Discharging,-967.2,14.4469,4378.62,67.2134,4:32:01.000,2005-01-02 21:01:16
93950,Discharging,-967.2,14.4246,4446.85,68.2056,4:36:16.000,2005-01-02 21:05:31
94205,Discharging,-967.2,14.4072,4515.09,69.1978,4:40:31.000,2005-01-02 21:09:46
94460,Discharging,-970.9,14.3874,4583.3,70.19,4:44:46.000,2005-01-02 21:14:01
94715,Discharging,-967.2,14.3725,4651.47,71.1818,4:49:01.000,2005-01-02 21:18:16
94970,Discharging,-965.4,14.3526,4719.57,72.164,4:53:16.000,2005-01-02 21:22:31
95225,Discharging,-967.2,14.3377,4787.67,73.1416,4:57:31.000,2005-01-02 21:26:46
95480,Discharging,-965.4,14.3204,4855.77,74.1145,5:01:46.000,2005-01-02 21:31:01
95735,Discharging,-965.4,14.303,4923.87,75.0874,5:06:01.000,2005-01-02 21:35:16
95990,Discharging,-965.4,14.2857,4991.97,76.0604,5:10:16.000,2005-01-02 21:39:31
96245,Discharging,-967.2,14.2633,5060.19,77.0331,5:14:31.000,2005-01-02 21:43:46
96500,Discharging,-967.2,14.2435,5128.4,78.0059,5:18:46.000,2005-01-02 21:48:01
96755,Discharging,-967.2,14.2237,5196.64,78.9786,5:23:01.000,2005-01-02 21:52:16
97010,Discharging,-967.2,14.2038,5264.87,79.9514,5:27:16.000,2005-01-02 21:56:31
97265,Discharging,-967.2,14.184,5333.12,80.9241,5:31:31.000,2005-01-02 22:00:46
97520,Discharging,-965.4,14.1617,5401.35,81.8969,5:35:46.000,2005-01-02 22:05:01
97775,Discharging,-967.2,14.1393,5469.46,82.8696,5:40:01.000,2005-01-02 22:09:16
98030,Discharging,-967.2,14.1145,5537.56,83.8424,5:44:16.000,2005-01-02 22:13:31
98285,Discharging,-965.4,14.0897,5605.66,84.8147,5:48:31.000,2005-01-02 22:17:46
98540,Discharging,-967.2,14.06,5673.77,85.7786,5:52:46.000,2005-01-02 22:22:01
98795,Discharging,-967.2,14.0302,5741.88,86.7329,5:57:01.000,2005-01-02 22:26:16
99050,Discharging,-967.2,13.9955,5810.06,87.6869,6:01:16.000,2005-01-02 22:30:31
99305,Discharging,-967.2,13.9608,5878.29,88.6402,6:05:31.000,2005-01-02 22:34:46
99560,Discharging,-967.2,13.9236,5946.49,89.5935,6:09:46.000,2005-01-02 22:39:01
99815,Discharging,-967.2,13.8888,6014.71,90.5468,6:14:01.000,2005-01-02 22:43:16
100070,Discharging,-967.2,13.8566,6082.92,91.5001,6:18:16.000,2005-01-02 22:47:31
100325,Discharging,-967.2,13.8244,6151.13,92.4534,6:22:31.000,2005-01-02 22:51:46
100580,Discharging,-965.4,13.8045,6219.25,93.4061,6:26:46.000,2005-01-02 22:56:01
100835,Discharging,-965.4,13.7847,6287.35,94.3504,6:31:01.000,2005-01-02 23:00:16
101090,Discharging,-967.2,13.7624,6355.45,95.2879,6:35:16.000,2005-01-02 23:04:31
101345,Discharging,-965.4,13.74,6423.55,96.2219,6:39:31.000,2005-01-02 23:08:46
101600,Discharging,-967.2,13.7177,6491.66,97.15584,6:43:46.000,2005-01-02 23:13:01
101855,Discharging,-967.2,13.6929,6559.78,98.0897,6:48:01.000,2005-01-02 23:17:16
102110,Discharging,-967.2,13.6656,6628.02,99.0235,6:52:16.000,2005-01-02 23:21:31
102365,Discharging,-967.2,13.6383,6696.24,99.9574,6:56:31.000,2005-01-02 23:25:46
102620,Discharging,-967.2,13.6061,6764.46,100.8912,7:00:46.000,2005-01-02 23:30:01
102875,Discharging,-967.2,13.5664,6832.7,101.825,7:05:01.000,2005-01-02 23:34:16
103130,Discharging,-967.2,13.5094,6900.92,102.759,7:09:16.000,2005-01-02 23:38:31
103385,Discharging,-965.4,13.4474,6969.11,103.68,7:13:31.000,2005-01-02 23:42:46
103640,Discharging,-965.4,13.3878,7037.21,104.594,7:17:46.000,2005-01-02 23:47:01
103895,Discharging,-965.4,13.3258,7105.31,105.509,7:22:01.000,2005-01-02 23:51:16
104150,Discharging,-967.2,13.2589,7173.41,106.423,7:26:16.000,2005-01-02 23:55:31
104405,Discharging,-967.2,13.187,7241.51,107.328,7:30:31.000,2005-01-02 23:59:46
104660,Discharging,-967.2,13.1101,7309.61,108.223,7:34:46.000,2005-01-03 00:04:01
104915,Discharging,-965.4,13.0208,7377.79,109.118,7:39:01.000,2005-01-03 00:08:16
105170,Discharging,-967.2,12.929,7446,110.013,7:43:16.000,2005-01-03 00:12:31
105425,Discharging,-967.2,12.8298,7514.2,110.891,7:47:31.000,2005-01-03 00:16:46
105680,Discharging,-970.9,12.7256,7582.41,111.766,7:51:46.000,2005-01-03 00:21:01
105935,Discharging,-970.9,12.6215,7650.63,112.639,7:56:01.000,2005-01-03 00:25:16
106190,Discharging,-965.4,12.5223,7718.85,113.495,8:00:16.000,2005-01-03 00:29:31
106445,Discharging,-965.4,12.4206,7786.97,114.351,8:04:31.000,2005-01-03 00:33:46
106700,Discharging,-965.4,12.3189,7855.06,115.198,8:08:46.000,2005-01-03 00:38:01
106955,Discharging,-967.2,12.2147,7923.16,116.035,8:13:01.000,2005-01-03 00:42:16
107210,Discharging,-965.4,12.1006,7991.264,116.871,8:17:16.000,2005-01-03 00:46:31
107465,Discharging,-818.4,12.0039,8058.02,117.675,8:21:31.000,2005-01-03 00:50:46
107720,Discharging,-474.3,12.0064,8103.13,118.217,8:25:46.000,2005-01-03 00:55:01
107975,Discharging,-293.8,12.0064,8129.78,118.536,8:30:01.000,2005-01-03 00:59:16
108230,Discharging,-191.5,12.0064,8146.72,118.739,8:34:16.000,2005-01-03 01:03:31
108485,Discharging,-133.9,12.0064,8157.95,118.876,8:38:31.000,2005-01-03 01:07:46
108721,Discharging,-102.3,12.0064,8165.55,118.969,8:42:27.000,2005-01-03 01:11:42